Energy Counts
-0.4824    0
-0.4774    0
-0.4724    0
-0.4674    0
-0.4624    0
-0.4574    0
-0.4524    0
-0.4474    0
-0.4424    0
-0.4374    0
-0.4324    0
-0.4274    0
-0.4224    0
-0.4174    0
-0.4124    0
-0.4074    0
-0.4024    0
-0.3974    0
-0.3924    0
-0.3874    0
-0.3824    0
-0.3774    0
-0.3724    0
-0.3674    0
-0.3624    0
-0.3574    0
-0.3524    0
-0.3474    0
-0.3424    0
-0.3374    0
-0.3324    0
-0.3274    0
-0.3224    0
-0.3174    0
-0.3124    0
-0.3074    0
-0.3024    0
-0.2974    0
-0.2924    0
-0.2874    0
-0.2824    0
-0.2774    0
-0.2724    0
-0.2674    0
-0.2624    0
-0.2574    0
-0.2524    0
-0.2474    0
-0.2424    0
-0.2374    0
-0.2324    0
-0.2274    0
-0.2224    0
-0.2174    0
-0.2124    0
-0.2074    0
-0.2024    0
-0.1974    0
-0.1924    0
-0.1874    0
-0.1824    0
-0.1774    0
-0.1724    0
-0.1674    0
-0.1624    0
-0.1574    0
-0.1524    0
-0.1474    0
-0.1424    0
-0.1374    0
-0.1324    0
-0.1274    0
-0.1224    0
-0.1174    0
-0.1124    0
-0.1074    0
-0.1024    0
-0.0974    0
-0.0924    1
-0.0874    6
-0.0824   13
-0.0774   26
-0.0724   24
-0.0674   64
-0.0624   81
-0.0574  174
-0.0524  238
-0.0474  352
-0.0424  504
-0.0374  726
-0.0324  995
-0.0274 1301
-0.0224 1565
-0.0174 1864
-0.0124 2061
-0.0074 2221
-0.0024 2390
 0.0026 2465
 0.0076 2320
 0.0126 2115
 0.0176 1891
 0.0226 1621
 0.0276 1322
 0.0326 1048
 0.0376  756
 0.0426  579
 0.0476  381
 0.0526  273
 0.0576  150
 0.0626  115
 0.0676   68
 0.0726   40
 0.0776   14
 0.0826   11
 0.0876    3
 0.0926    1
 0.0976    1
 0.1026    1
 0.1076    0
 0.1126    0
 0.1176    0
 0.1226    0
 0.1276    0
 0.1326   36
 0.1376   52
 0.1426   39
 0.1476   36
 0.1526   30
 0.1576   26
 0.1626   29
 0.1676   28
 0.1726   33
 0.1776   39
 0.1826   30
 0.1876   25
 0.1926   28
 0.1976   34
 0.2026   39
 0.2076   41
 0.2126   48
 0.2176   47
 0.2226   51
 0.2276   58
 0.2326   67
 0.2376   81
 0.2426   67
 0.2476   86
 0.2526   97
 0.2576   87
 0.2626   92
 0.2676   92
 0.2726   95
 0.2776  100
 0.2826   83
 0.2876  100
 0.2926   89
 0.2976   92
 0.3026   93
 0.3076   64
 0.3126   63
 0.3176   52
 0.3226   75
 0.3276   54
 0.3326   74
 0.3376   67
 0.3426   78
 0.3476   74
 0.3526   81
 0.3576   97
 0.3626   98
 0.3676  101
 0.3726   98
 0.3776   85
 0.3826   99
 0.3876  105
 0.3926  123
 0.3976  143
 0.4026  145
 0.4076  134
 0.4126  138
 0.4176  150
 0.4226  168
 0.4276  179
 0.4326  191
 0.4376  211
 0.4426  262
 0.4476  302
 0.4526  338
 0.4576  441
 0.4626  551
 0.4676  670
 0.4726  858
 0.4776 1076
 0.4826 1314
 0.4876 1683
 0.4926 1912
 0.4976 2201
 0.5025 2530
 0.5075 2729
 0.5125 2976
 0.5175 3131
 0.5225 3167
 0.5275 3218
 0.5325 3061
 0.5375 2932
 0.5425 2697
 0.5475 2339
 0.5525 2130
 0.5575 1758
 0.5625 1422
 0.5675 1136
 0.5725  956
 0.5775  739
 0.5825  693
 0.5875  546
 0.5925  504
 0.5975  496
 0.6025  484
 0.6075  446
 0.6125  389
 0.6175  420
 0.6225  407
 0.6275  412
 0.6325  445
 0.6375  472
 0.6425  469
 0.6475  467
 0.6525  525
 0.6575  515
 0.6625  638
 0.6675  716
 0.6725  735
 0.6775  956
 0.6825  922
 0.6875 1018
 0.6925 1111
 0.6975 1230
 0.7025 1205
 0.7075 1205
 0.7125 1268
 0.7175 1227
 0.7225 1106
 0.7275 1065
 0.7325  949
 0.7375  864
 0.7425  699
 0.7475  620
 0.7525  521
 0.7575  444
 0.7625  354
 0.7675  329
 0.7725  240
 0.7775  224
 0.7825  178
 0.7875  142
 0.7925  126
 0.7975  105
 0.8025   97
 0.8075   86
 0.8125   92
 0.8175   88
 0.8225   83
 0.8275   86
 0.8325   81
 0.8375   62
 0.8425   76
 0.8475   79
 0.8525   80
 0.8575   95
 0.8625   82
 0.8675   75
 0.8725   85
 0.8775   80
 0.8825   66
 0.8875   76
 0.8925   79
 0.8975   86
 0.9025   93
 0.9075   69
 0.9125   70
 0.9175   80
 0.9225   83
 0.9275   64
 0.9325   86
 0.9375   82
 0.9425   75
 0.9475   98
 0.9525   95
 0.9575   72
 0.9625   95
 0.9675   82
 0.9725   76
 0.9775   88
 0.9825   88
 0.9875   90
 0.9925  106
 0.9975   88
 1.0025   94
 1.0075   94
 1.0125  100
 1.0175   89
 1.0225   97
 1.0275   98
 1.0325   88
 1.0375   99
 1.0425   96
 1.0475   96
 1.0525   90
 1.0575   93
 1.0625  101
 1.0675   95
 1.0725  107
 1.0775  105
 1.0825   95
 1.0875   92
 1.0925  111
 1.0975   83
 1.1025   85
 1.1075  100
 1.1125   92
 1.1175   89
 1.1225   92
 1.1275   94
 1.1325   94
 1.1375   95
 1.1425  100
 1.1475   95
 1.1525   93
 1.1575   89
 1.1625   95
 1.1675  101
 1.1725  105
 1.1775  138
 1.1825   85
 1.1875  104
 1.1925   99
 1.1975  118
 1.2025  103
 1.2075  105
 1.2125  102
 1.2175  125
 1.2225  128
 1.2275  109
 1.2325  140
 1.2375  120
 1.2425  120
 1.2475  137
 1.2525  123
 1.2575  129
 1.2625  115
 1.2675  118
 1.2725  149
 1.2775  134
 1.2825  136
 1.2875  106
 1.2925  109
 1.2975  120
 1.3025  118
 1.3075  114
 1.3125  120
 1.3175  104
 1.3225   98
 1.3275  122
 1.3325  117
 1.3375  100
 1.3425  114
 1.3475  112
 1.3525  103
 1.3575  101
 1.3625  119
 1.3675  126
 1.3725   99
 1.3775  118
 1.3825  129
 1.3875  113
 1.3925  108
 1.3975   98
 1.4025  108
 1.4075  117
 1.4125  128
 1.4175  114
 1.4225  127
 1.4275  125
 1.4325  114
 1.4375  122
 1.4425  121
 1.4475  115
 1.4525  131
 1.4575  147
 1.4625  140
 1.4675  142
 1.4725  147
 1.4775  134
 1.4825  155
 1.4875  147
 1.4925  156
 1.4975  149
 1.5024  145
 1.5074  140
 1.5124  131
 1.5174  119
 1.5224  112
 1.5274  130
 1.5324  123
 1.5374  131
 1.5424  136
 1.5474  143
 1.5524  118
 1.5574  138
 1.5624  116
 1.5674  113
 1.5724  110
 1.5774  109
 1.5824  116
 1.5874  133
 1.5924  114
 1.5974  109
 1.6024  121
 1.6074  122
 1.6124  120
 1.6174  118
 1.6224  111
 1.6274  112
 1.6324  109
 1.6374  104
 1.6424  115
 1.6474  120
 1.6524  116
 1.6574  118
 1.6624  104
 1.6674  104
 1.6724  115
 1.6774  126
 1.6824  125
 1.6874  129
 1.6924  117
 1.6974  118
 1.7024  127
 1.7074  119
 1.7124  119
 1.7174  124
 1.7224  132
 1.7274  137
 1.7324  130
 1.7374  132
 1.7424  129
 1.7474  136
 1.7524  150
 1.7574  148
 1.7624  150
 1.7674  153
 1.7724  153
 1.7774  150
 1.7824  145
 1.7874  156
 1.7924  157
 1.7974  159
 1.8024  170
 1.8074  175
 1.8124  165
 1.8174  152
 1.8224  163
 1.8274  168
 1.8324  151
 1.8374  155
 1.8424  158
 1.8474  148
 1.8524  143
 1.8574  139
 1.8624  142
 1.8674  147
 1.8724  142
 1.8774  130
 1.8824  123
 1.8874  120
 1.8924  121
 1.8974  129
 1.9024  120
 1.9074  103
 1.9124  103
 1.9174  107
 1.9224  105
 1.9274  116
 1.9324  110
 1.9374  104
 1.9424  113
 1.9474  109
 1.9524  105
 1.9574   99
 1.9624   93
 1.9674  103
 1.9724  105
 1.9774  111
 1.9824  112
 1.9874  110
 1.9924  115
 1.9974  117
 2.0024  113
 2.0074  112
 2.0124  107
 2.0174  103
 2.0224  112
 2.0274   99
 2.0324   90
 2.0374  108
 2.0424  115
 2.0474  116
 2.0524  114
 2.0574  109
 2.0624  113
 2.0674  107
 2.0724  100
 2.0774   95
 2.0824   97
 2.0874   98
 2.0924   96
 2.0974   96
 2.1024  107
 2.1074  117
 2.1124  110
 2.1174  115
 2.1224  119
 2.1274  115
 2.1324  103
 2.1374   98
 2.1424  101
 2.1474  100
 2.1524  111
 2.1574  106
 2.1624  109
 2.1674  110
 2.1724  106
 2.1774  104
 2.1824  105
 2.1874  100
 2.1924   99
 2.1974  107
 2.2024  108
 2.2074   95
 2.2124   94
 2.2174   93
 2.2224   92
 2.2274   96
 2.2324   99
 2.2374  100
 2.2424  108
 2.2474  100
 2.2524  102
 2.2574  101
 2.2624   98
 2.2674  100
 2.2724   94
 2.2774   96
 2.2824  109
 2.2874  107
 2.2924  103
 2.2974  102
 2.3024  111
 2.3074  107
 2.3124  100
 2.3174   99
 2.3224  110
 2.3274   99
 2.3324   91
 2.3374   86
 2.3424   81
 2.3474   84
 2.3524  113
 2.3574  118
 2.3624  102
 2.3674   99
 2.3724   99
 2.3774   98
 2.3824   91
 2.3874  105
 2.3924   99
 2.3974   95
 2.4024   90
 2.4074   90
 2.4124   99
 2.4174   97
 2.4224   83
 2.4274   82
 2.4324  111
 2.4374  108
 2.4424   95
 2.4474   94
 2.4524   98
 2.4574   94
 2.4624  100
 2.4674   86
 2.4724   90
 2.4774   92
 2.4824   99
 2.4874  110
 2.4924  107
 2.4974   94
 2.5023   92
 2.5073   81
 2.5123   75
 2.5173   86
 2.5223   90
 2.5273   90
 2.5323  106
 2.5373  101
 2.5423   91
 2.5473   96
 2.5523  104
 2.5573  111
 2.5623   91
 2.5673   83
 2.5723   87
 2.5773   97
 2.5823   87
 2.5873   92
 2.5923   86
 2.5973   86
 2.6023   90
 2.6073   74
 2.6123   91
 2.6173  100
 2.6223   99
 2.6273   82
 2.6323   92
 2.6373   87
 2.6423   87
 2.6473  104
 2.6523   84
 2.6573   75
 2.6623   87
 2.6673   93
 2.6723   89
 2.6773   94
 2.6823   96
 2.6873   85
 2.6923   91
 2.6973   90
 2.7023   81
 2.7073   85
 2.7123   77
 2.7173   78
 2.7223   85
 2.7273   90
 2.7323   86
 2.7373   79
 2.7423   83
 2.7473   83
 2.7523   82
 2.7573   81
 2.7623   71
 2.7673   82
 2.7723   83
 2.7773   87
 2.7823   94
 2.7873   73
 2.7923   96
 2.7973  102
 2.8023   97
 2.8073   82
 2.8123   92
 2.8173   76
 2.8223   86
 2.8273   87
 2.8323   73
 2.8373   76
 2.8423   85
 2.8473   93
 2.8523   89
 2.8573   95
 2.8623   83
 2.8673   79
 2.8723   88
 2.8773   96
 2.8823   92
 2.8873   90
 2.8923   85
 2.8973   89
 2.9023   78
 2.9073   79
 2.9123   72
 2.9173   78
 2.9223   84
 2.9273   79
 2.9323   83
 2.9373   77
 2.9423   92
 2.9473   70
 2.9523   96
 2.9573   81
 2.9623   68
 2.9673   82
 2.9723   71
 2.9773   81
 2.9823   76
 2.9873   77
 2.9923   68
 2.9973   77
 3.0023   69
 3.0073   94
 3.0123   76
 3.0173   64
 3.0223   86
 3.0273   80
 3.0323   65
 3.0373   71
 3.0423   65
 3.0473   74
 3.0523   95
 3.0573   95
 3.0623   69
 3.0673   76
 3.0723   87
 3.0773   78
 3.0823   75
 3.0873   81
 3.0923   84
 3.0973   81
 3.1023   75
 3.1073   85
 3.1123   87
 3.1173   71
 3.1223   93
 3.1273   67
 3.1323   83
 3.1373   97
 3.1423   73
 3.1473   74
 3.1523   66
 3.1573   71
 3.1623   90
 3.1673   90
 3.1723   80
 3.1773   89
 3.1823   82
 3.1873   83
 3.1923   92
 3.1973   66
 3.2023   82
 3.2073   76
 3.2123   72
 3.2173   68
 3.2223   74
 3.2273   67
 3.2323   76
 3.2373   82
 3.2423   74
 3.2473   81
 3.2523   66
 3.2573   84
 3.2623   73
 3.2673   77
 3.2723   89
 3.2773   74
 3.2823   87
 3.2873   73
 3.2923   82
 3.2973   76
 3.3023   81
 3.3073   71
 3.3123   77
 3.3173   72
 3.3223   74
 3.3273   69
 3.3323   77
 3.3373   63
 3.3423   73
 3.3473   83
 3.3523   69
 3.3573   65
 3.3623   72
 3.3673   71
 3.3723   61
 3.3773   64
 3.3823   66
 3.3873   73
 3.3923   70
 3.3973   72
 3.4023   69
 3.4073   80
 3.4123   68
 3.4173   69
 3.4223   73
 3.4273   61
 3.4323   60
 3.4373   72
 3.4423   83
 3.4473   64
 3.4523   60
 3.4573   67
 3.4623   69
 3.4673   74
 3.4723   91
 3.4773   66
 3.4823   67
 3.4873   67
 3.4923   57
 3.4973   80
 3.5022   87
 3.5072   66
 3.5122   67
 3.5172   74
 3.5222   67
 3.5272   75
 3.5322   74
 3.5372   68
 3.5422   58
 3.5472   80
 3.5522   71
 3.5572   60
 3.5622   75
 3.5672   75
 3.5722   59
 3.5772   54
 3.5822   74
 3.5872   60
 3.5922   63
 3.5972   60
 3.6022   78
 3.6072   77
 3.6122   69
 3.6172   64
 3.6222   67
 3.6272   72
 3.6322   65
 3.6372   67
 3.6422   67
 3.6472   66
 3.6522   60
 3.6572   52
 3.6622   68
 3.6672   85
 3.6722   66
 3.6772   51
 3.6822   57
 3.6872   65
 3.6922   64
 3.6972   57
 3.7022   60
 3.7072   68
 3.7122   64
 3.7172   81
 3.7222   68
 3.7272   56
 3.7322   61
 3.7372   67
 3.7422   66
 3.7472   61
 3.7522   73
 3.7572   49
 3.7622   65
 3.7672   56
 3.7722   68
 3.7772   71
 3.7822   55
 3.7872   56
 3.7922   65
 3.7972   61
 3.8022   51
 3.8072   67
 3.8122   58
 3.8172   55
 3.8222   61
 3.8272   61
 3.8322   63
 3.8372   49
 3.8422   58
 3.8472   64
 3.8522   65
 3.8572   63
 3.8622   74
 3.8672   53
 3.8722   52
 3.8772   55
 3.8822   69
 3.8872   63
 3.8922   68
 3.8972   58
 3.9022   66
 3.9072   64
 3.9122   61
 3.9172   67
 3.9222   53
 3.9272   51
 3.9322   46
 3.9372   45
 3.9422   62
 3.9472   47
 3.9522   62
 3.9572   55
 3.9622   66
 3.9672   61
 3.9722   63
 3.9772   63
 3.9822   69
 3.9872   58
 3.9922   61
 3.9972   51
 4.0022   60
 4.0072   59
 4.0122   66
 4.0172   61
 4.0222   59
 4.0272   55
 4.0322   58
 4.0372   50
 4.0422   56
 4.0472   55
 4.0522   69
 4.0572   60
 4.0622   48
 4.0672   59
 4.0722   56
 4.0772   51
 4.0822   49
 4.0872   63
 4.0922   62
 4.0972   59
 4.1022   58
 4.1072   55
 4.1122   49
 4.1172   56
 4.1222   60
 4.1272   48
 4.1322   52
 4.1372   51
 4.1422   51
 4.1472   61
 4.1522   59
 4.1572   47
 4.1622   51
 4.1672   59
 4.1722   57
 4.1772   48
 4.1822   57
 4.1872   55
 4.1922   47
 4.1972   53
 4.2022   57
 4.2072   61
 4.2122   60
 4.2172   55
 4.2222   56
 4.2272   62
 4.2322   55
 4.2372   51
 4.2422   51
 4.2472   53
 4.2522   55
 4.2572   58
 4.2622   47
 4.2672   47
 4.2722   47
 4.2772   48
 4.2822   60
 4.2872   52
 4.2922   54
 4.2972   48
 4.3022   54
 4.3072   59
 4.3122   50
 4.3172   50
 4.3222   50
 4.3272   54
 4.3322   60
 4.3372   57
 4.3422   62
 4.3472   58
 4.3522   60
 4.3572   44
 4.3622   48
 4.3672   54
 4.3722   55
 4.3772   66
 4.3822   78
 4.3872   71
 4.3922   61
 4.3972   66
 4.4022   83
 4.4072   83
 4.4122   88
 4.4172   85
 4.4222  105
 4.4272  112
 4.4322  121
 4.4372  146
 4.4422  151
 4.4472  163
 4.4522  165
 4.4572  166
 4.4622  196
 4.4672  195
 4.4722  198
 4.4772  219
 4.4822  222
 4.4872  246
 4.4922  246
 4.4972  246
 4.5021  251
 4.5071  250
 4.5121  248
 4.5171  249
 4.5221  240
 4.5271  220
 4.5321  218
 4.5371  209
 4.5421  197
 4.5471  191
 4.5521  177
 4.5571  165
 4.5621  156
 4.5671  140
 4.5721  138
 4.5771  136
 4.5821  114
 4.5871   99
 4.5921   84
 4.5971   83
 4.6021   77
 4.6071   71
 4.6121   67
 4.6171   65
 4.6221   63
 4.6271   59
 4.6321   53
 4.6371   56
 4.6421   62
 4.6471   55
 4.6521   49
 4.6571   47
 4.6621   45
 4.6671   44
 4.6721   49
 4.6771   51
 4.6821   47
 4.6871   51
 4.6921   54
 4.6971   48
 4.7021   49
 4.7071   45
 4.7121   49
 4.7171   53
 4.7221   51
 4.7271   50
 4.7321   39
 4.7371   38
 4.7421   42
 4.7471   46
 4.7521   58
 4.7571   60
 4.7621   54
 4.7671   50
 4.7721   44
 4.7771   51
 4.7821   58
 4.7871   50
 4.7921   47
 4.7971   49
 4.8021   48
 4.8071   49
 4.8121   49
 4.8171   45
 4.8221   48
 4.8271   48
 4.8321   43
 4.8371   44
 4.8421   47
 4.8471   45
 4.8521   57
 4.8571   60
 4.8621   51
 4.8671   48
 4.8721   46
 4.8771   59
 4.8821   63
 4.8871   54
 4.8921   63
 4.8971   69
 4.9021   68
 4.9071   70
 4.9121   67
 4.9171   67
 4.9221   64
 4.9271   64
 4.9321   73
 4.9371   80
 4.9421   79
 4.9471   67
 4.9521   68
 4.9571   68
 4.9621   65
 4.9671   64
 4.9721   65
 4.9771   55
 4.9821   49
 4.9871   49
 4.9921   51
 4.9971   60
 5.0021   57
 5.0071   45
 5.0121   48
 5.0171   51
 5.0221   44
 5.0271   44
 5.0321   38
 5.0371   33
 5.0421   38
 5.0471   43
 5.0521   38
 5.0571   40
 5.0621   45
 5.0671   36
 5.0721   41
 5.0771   51
 5.0821   43
 5.0871   34
 5.0921   40
 5.0971   53
 5.1021   46
 5.1071   41
 5.1121   41
 5.1171   44
 5.1221   43
 5.1271   38
 5.1321   41
 5.1371   41
 5.1421   45
 5.1471   40
 5.1521   41
 5.1571   40
 5.1621   34
 5.1671   32
 5.1721   35
 5.1771   41
 5.1821   39
 5.1871   37
 5.1921   39
 5.1971   47
 5.2021   44
 5.2071   41
 5.2121   36
 5.2171   28
 5.2221   40
 5.2271   44
 5.2321   48
 5.2371   43
 5.2421   40
 5.2471   38
 5.2521   36
 5.2571   37
 5.2621   40
 5.2671   45
 5.2721   36
 5.2771   37
 5.2821   43
 5.2871   45
 5.2921   38
 5.2971   34
 5.3021   36
 5.3071   37
 5.3121   40
 5.3171   41
 5.3221   40
 5.3271   33
 5.3321   44
 5.3371   40
 5.3421   40
 5.3471   40
 5.3521   41
 5.3571   43
 5.3621   44
 5.3671   51
 5.3721   48
 5.3771   39
 5.3821   43
 5.3871   42
 5.3921   39
 5.3971   40
 5.4021   47
 5.4071   35
 5.4121   37
 5.4171   36
 5.4221   38
 5.4271   42
 5.4321   26
 5.4371   36
 5.4421   46
 5.4471   45
 5.4521   42
 5.4571   36
 5.4621   37
 5.4671   42
 5.4721   39
 5.4771   33
 5.4821   33
 5.4871   35
 5.4921   41
 5.4971   39
  5.502   38
  5.507   35
  5.512   40
  5.517   35
  5.522   48
  5.527   40
  5.532   34
  5.537   29
  5.542   36
  5.547   34
  5.552   38
  5.557   33
  5.562   30
  5.567   38
  5.572   37
  5.577   27
  5.582   41
  5.587   41
  5.592   33
  5.597   38
  5.602   38
  5.607   34
  5.612   31
  5.617   30
  5.622   35
  5.627   42
  5.632   35
  5.637   34
  5.642   34
  5.647   34
  5.652   40
  5.657   28
  5.662   34
  5.667   28
  5.672   35
  5.677   39
  5.682   34
  5.687   34
  5.692   39
  5.697   30
  5.702   36
  5.707   32
  5.712   41
  5.717   39
  5.722   31
  5.727   33
  5.732   38
  5.737   33
  5.742   39
  5.747   40
  5.752   40
  5.757   39
  5.762   34
  5.767   40
  5.772   51
  5.777   35
  5.782   46
  5.787   43
  5.792   35
  5.797   53
  5.802   38
  5.807   53
  5.812   43
  5.817   56
  5.822   57
  5.827   62
  5.832   55
  5.837   69
  5.842   61
  5.847   53
  5.852   55
  5.857   66
  5.862   71
  5.867   78
  5.872   81
  5.877   91
  5.882   80
  5.887   91
  5.892   87
  5.897   83
  5.902   68
  5.907   79
  5.912   91
  5.917   92
  5.922   68
  5.927   73
  5.932   68
  5.937   62
  5.942   57
  5.947   49
  5.952   73
  5.957   56
  5.962   58
  5.967   49
  5.972   47
  5.977   42
  5.982   54
  5.987   44
  5.992   47
  5.997   38
  6.002   33
  6.007   26
  6.012   45
  6.017   40
  6.022   40
  6.027   46
  6.032   31
  6.037   33
  6.042   41
  6.047   28
  6.052   25
  6.057   35
  6.062   22
  6.067   30
  6.072   42
  6.077   29
  6.082   33
  6.087   27
  6.092   47
  6.097   35
  6.102   29
  6.107   31
  6.112   33
  6.117   26
  6.122   42
  6.127   36
  6.132   37
  6.137   33
  6.142   40
  6.147   32
  6.152   39
  6.157   39
  6.162   39
  6.167   48
  6.172   34
  6.177   42
  6.182   35
  6.187   41
  6.192   51
  6.197   42
  6.202   44
  6.207   41
  6.212   50
  6.217   51
  6.222   58
  6.227   63
  6.232   65
  6.237   75
  6.242   75
  6.247  101
  6.252  119
  6.257  118
  6.262  134
  6.267  132
  6.272  196
  6.277  218
  6.282  261
  6.287  266
  6.292  331
  6.297  324
  6.302  409
  6.307  499
  6.312  547
  6.317  582
  6.322  673
  6.327  677
  6.332  808
  6.337  861
  6.342  882
  6.347  965
  6.352  997
  6.357 1086
  6.362 1130
  6.367 1177
  6.372 1282
  6.377 1340
  6.382 1374
  6.387 1323
  6.392 1344
  6.397 1311
  6.402 1395
  6.407 1336
  6.412 1296
  6.417 1235
  6.422 1230
  6.427 1126
  6.432 1114
  6.437 1071
  6.442  999
  6.447  887
  6.452  862
  6.457  775
  6.462  703
  6.467  653
  6.472  611
  6.477  534
  6.482  490
  6.487  384
  6.492  392
  6.497  316
 6.5019  272
 6.5069  259
 6.5119  194
 6.5169  206
 6.5219  144
 6.5269  123
 6.5319  103
 6.5369   95
 6.5419   85
 6.5469   85
 6.5519   65
 6.5569   69
 6.5619   47
 6.5669   52
 6.5719   42
 6.5769   30
 6.5819   38
 6.5869   34
 6.5919   34
 6.5969   23
 6.6019   29
 6.6069   32
 6.6119   26
 6.6169   27
 6.6219   25
 6.6269   21
 6.6319   29
 6.6369   27
 6.6419   35
 6.6469   29
 6.6519   39
 6.6569   22
 6.6619   25
 6.6669   27
 6.6719   28
 6.6769   23
 6.6819   21
 6.6869   32
 6.6919   31
 6.6969   21
 6.7019   22
 6.7069   29
 6.7119   28
 6.7169   31
 6.7219   27
 6.7269   23
 6.7319   36
 6.7369   30
 6.7419   20
 6.7469   25
 6.7519   23
 6.7569   28
 6.7619   33
 6.7669   21
 6.7719   25
 6.7769   26
 6.7819   20
 6.7869   27
 6.7919   22
 6.7969   26
 6.8019   30
 6.8069   21
 6.8119   37
 6.8169   23
 6.8219   20
 6.8269   22
 6.8319   24
 6.8369   30
 6.8419   23
 6.8469   37
 6.8519   31
 6.8569   38
 6.8619   40
 6.8669   30
 6.8719   32
 6.8769   41
 6.8819   35
 6.8869   29
 6.8919   21
 6.8969   37
 6.9019   29
 6.9069   41
 6.9119   49
 6.9169   40
 6.9219   47
 6.9269   54
 6.9319   51
 6.9369   65
 6.9419   58
 6.9469   63
 6.9519   75
 6.9569   75
 6.9619   95
 6.9669   87
 6.9719  100
 6.9769  104
 6.9819  120
 6.9869  120
 6.9919  162
 6.9969  134
 7.0019  148
 7.0069  174
 7.0119  160
 7.0169  170
 7.0219  152
 7.0269  172
 7.0319  154
 7.0369  213
 7.0419  203
 7.0469  210
 7.0519  189
 7.0569  187
 7.0619  188
 7.0669  172
 7.0719  194
 7.0769  179
 7.0819  148
 7.0869  160
 7.0919  138
 7.0969  171
 7.1019  151
 7.1069  127
 7.1119  133
 7.1169   90
 7.1219  105
 7.1269   84
 7.1319   84
 7.1369   66
 7.1419   83
 7.1469   66
 7.1519   64
 7.1569   48
 7.1619   56
 7.1669   43
 7.1719   47
 7.1769   51
 7.1819   29
 7.1869   26
 7.1919   31
 7.1969   30
 7.2019   31
 7.2069   27
 7.2119   28
 7.2169   19
 7.2219   12
 7.2269   16
 7.2319   32
 7.2369   12
 7.2419   15
 7.2469   16
 7.2519   13
 7.2569   20
 7.2619   16
 7.2669   18
 7.2719   22
 7.2769   17
 7.2819   18
 7.2869   23
 7.2919   18
 7.2969   20
 7.3019   20
 7.3069   15
 7.3119   23
 7.3169   16
 7.3219   16
 7.3269   14
 7.3319   28
 7.3369   24
 7.3419   20
 7.3469   17
 7.3519   13
 7.3569   17
 7.3619   17
 7.3669   21
 7.3719   19
 7.3769   19
 7.3819   20
 7.3869   14
 7.3919   17
 7.3969   20
 7.4019   18
 7.4069   12
 7.4119   16
 7.4169   19
 7.4219   19
 7.4269   24
 7.4319   18
 7.4369   23
 7.4419   16
 7.4469   18
 7.4519   23
 7.4569   25
 7.4619   16
 7.4669   24
 7.4719   16
 7.4769   18
 7.4819   18
 7.4869   20
 7.4919   19
 7.4969   16
 7.5018   25
 7.5068   13
 7.5118   23
 7.5168   18
 7.5218   17
 7.5268   21
 7.5318   15
 7.5368   23
 7.5418   23
 7.5468   14
 7.5518   15
 7.5568   17
 7.5618   19
 7.5668   18
 7.5718   18
 7.5768   17
 7.5818   23
 7.5868   12
 7.5918   21
 7.5968   17
 7.6018   11
 7.6068   14
 7.6118    8
 7.6168   25
 7.6218   17
 7.6268   20
 7.6318   16
 7.6368   23
 7.6418   21
 7.6468   15
 7.6518   20
 7.6568   17
 7.6618   27
 7.6668   16
 7.6718   17
 7.6768   18
 7.6818   14
 7.6868   21
 7.6918   26
 7.6968   21
 7.7018   25
 7.7068   15
 7.7118   18
 7.7168   16
 7.7218   20
 7.7268   12
 7.7318   19
 7.7368   10
 7.7418   12
 7.7468   21
 7.7518   10
 7.7568   15
 7.7618   19
 7.7668   15
 7.7718   13
 7.7768   17
 7.7818   20
 7.7868   16
 7.7918   16
 7.7968   14
 7.8018   11
 7.8068   15
 7.8118   14
 7.8168   14
 7.8218   14
 7.8268    8
 7.8318   16
 7.8368   21
 7.8418   15
 7.8468   10
 7.8518   20
 7.8568   23
 7.8618   18
 7.8668   17
 7.8718   21
 7.8768   15
 7.8818   12
 7.8868   20
 7.8918   20
 7.8968   14
 7.9018   21
 7.9068   22
 7.9118   13
 7.9168   15
 7.9218   13
 7.9268   16
 7.9318   26
 7.9368   11
 7.9418   24
 7.9468   17
 7.9518   13
 7.9568   16
 7.9618   17
 7.9668   19
 7.9718   23
 7.9768   22
 7.9818   22
 7.9868   10
 7.9918   18
 7.9968   14
 8.0018   27
 8.0068   11
 8.0118   15
 8.0168   19
 8.0218   15
 8.0268   18
 8.0318   12
 8.0368   21
 8.0418   20
 8.0468   14
 8.0518   10
 8.0568   20
 8.0618   18
 8.0668   19
 8.0718   17
 8.0768   17
 8.0818   16
 8.0868   13
 8.0918   19
 8.0968   14
 8.1018   15
 8.1068   13
 8.1118   18
 8.1168   13
 8.1218   13
 8.1268   14
 8.1318   14
 8.1368   18
 8.1418   18
 8.1468   21
 8.1518   16
 8.1568   12
 8.1618   16
 8.1668   11
 8.1718   18
 8.1768    9
 8.1818   17
 8.1868   12
 8.1918   18
 8.1968   15
 8.2018   18
 8.2068   16
 8.2118   15
 8.2168   11
 8.2218   17
 8.2268   10
 8.2318   21
 8.2368   20
 8.2418   18
 8.2468   15
 8.2518   21
 8.2568   22
 8.2618    9
 8.2668   18
 8.2718   16
 8.2768   18
 8.2818   12
 8.2868   20
 8.2918   18
 8.2968    9
 8.3018   13
 8.3068   21
 8.3118   18
 8.3168   12
 8.3218   11
 8.3268   11
 8.3318    9
 8.3368   15
 8.3418   13
 8.3468   14
 8.3518   14
 8.3568   11
 8.3618   11
 8.3668   19
 8.3718   12
 8.3768   19
 8.3818   14
 8.3868   20
 8.3918   13
 8.3968   17
 8.4018   16
 8.4068   15
 8.4118   17
 8.4168   12
 8.4218    8
 8.4268   21
 8.4318   13
 8.4368   16
 8.4418   10
 8.4468   16
 8.4518   12
 8.4568    8
 8.4618   14
 8.4668   11
 8.4718   18
 8.4768   17
 8.4818   13
 8.4868   16
 8.4918   15
 8.4968   11
 8.5017   13
 8.5067   14
 8.5117   13
 8.5167   12
 8.5217   10
 8.5267   16
 8.5317    6
 8.5367   19
 8.5417   17
 8.5467   22
 8.5517   13
 8.5567   13
 8.5617   13
 8.5667   22
 8.5717    8
 8.5767   12
 8.5817   11
 8.5867   13
 8.5917   10
 8.5967   17
 8.6017   14
 8.6067   14
 8.6117   11
 8.6167   12
 8.6217   13
 8.6267   19
 8.6317   13
 8.6367   17
 8.6417   11
 8.6467   19
 8.6517   14
 8.6567   16
 8.6617   12
 8.6667   13
 8.6717   14
 8.6767   15
 8.6817   10
 8.6867   15
 8.6917   16
 8.6967   16
 8.7017   10
 8.7067   19
 8.7117   14
 8.7167    8
 8.7217   22
 8.7267   20
 8.7317   14
 8.7367   18
 8.7417   16
 8.7467   18
 8.7517    6
 8.7567   11
 8.7617    8
 8.7667   13
 8.7717    8
 8.7767   14
 8.7817   12
 8.7867   13
 8.7917   13
 8.7967    8
 8.8017   12
 8.8067   10
 8.8117   11
 8.8167   10
 8.8217   18
 8.8267   15
 8.8317   17
 8.8367   15
 8.8417   11
 8.8467   17
 8.8517   11
 8.8567    8
 8.8617   13
 8.8667   16
 8.8717   12
 8.8767   12
 8.8817   21
 8.8867    9
 8.8917   13
 8.8967   16
 8.9017   10
 8.9067   12
 8.9117   19
 8.9167   16
 8.9217    6
 8.9267   14
 8.9317   15
 8.9367   10
 8.9417   13
 8.9467   10
 8.9517   12
 8.9567    9
 8.9617   17
 8.9667   13
 8.9717   18
 8.9767   13
 8.9817    9
 8.9867    7
 8.9917    8
 8.9967   12
 9.0017   10
 9.0067   17
 9.0117   12
 9.0167    8
 9.0217   14
 9.0267   17
 9.0317   10
 9.0367   12
 9.0417   17
 9.0467   11
 9.0517   11
 9.0567   18
 9.0617   16
 9.0667   13
 9.0717   14
 9.0767   17
 9.0817   18
 9.0867   10
 9.0917   13
 9.0967   15
 9.1017   17
 9.1067    8
 9.1117    9
 9.1167    8
 9.1217   10
 9.1267    9
 9.1317    6
 9.1367    6
 9.1417    7
 9.1467   14
 9.1517    8
 9.1567   10
 9.1617    9
 9.1667   11
 9.1717    8
 9.1767    7
 9.1817   10
 9.1867   15
 9.1917    9
 9.1967   10
 9.2017   14
 9.2067   10
 9.2117   10
 9.2167    9
 9.2217   15
 9.2267    9
 9.2317   10
 9.2367   12
 9.2417   11
 9.2467   15
 9.2517   12
 9.2567   10
 9.2617   10
 9.2667   16
 9.2717   20
 9.2767   10
 9.2817    6
 9.2867   10
 9.2917   11
 9.2967    9
 9.3017   10
 9.3067   13
 9.3117   10
 9.3167    5
 9.3217    7
 9.3267   13
 9.3317   13
 9.3367    9
 9.3417   10
 9.3467   10
 9.3517   13
 9.3567   10
 9.3617    9
 9.3667    9
 9.3717   17
 9.3767   10
 9.3817    8
 9.3867    9
 9.3917   12
 9.3967   11
 9.4017   16
 9.4067   13
 9.4117   12
 9.4167   11
 9.4217   11
 9.4267   13
 9.4317    8
 9.4367   11
 9.4417    9
 9.4467   14
 9.4517   16
 9.4567    7
 9.4617   15
 9.4667   12
 9.4717    9
 9.4767   11
 9.4817   15
 9.4867   10
 9.4917    5
 9.4967   13
 9.5016    7
 9.5066   11
 9.5116    6
 9.5166   12
 9.5216    8
 9.5266    8
 9.5316   11
 9.5366   10
 9.5416    9
 9.5466    8
 9.5516   12
 9.5566    7
 9.5616    4
 9.5666   18
 9.5716   10
 9.5766   10
 9.5816   12
 9.5866   14
 9.5916    5
 9.5966    9
 9.6016   14
 9.6066   16
 9.6116   20
 9.6166   10
 9.6216    9
 9.6266    6
 9.6316    7
 9.6366    4
 9.6416   11
 9.6466    9
 9.6516    8
 9.6566   10
 9.6616   13
 9.6666    7
 9.6716    7
 9.6766   12
 9.6816   16
 9.6866   11
 9.6916   10
 9.6966   13
 9.7016    7
 9.7066    9
 9.7116    7
 9.7166    8
 9.7216   12
 9.7266    5
 9.7316    5
 9.7366   10
 9.7416   12
 9.7466   10
 9.7516    6
 9.7566    9
 9.7616    9
 9.7666    9
 9.7716    5
 9.7766   11
 9.7816    7
 9.7866   12
 9.7916   13
 9.7966    9
 9.8016   10
 9.8066    8
 9.8116    8
 9.8166   11
 9.8216   11
 9.8266   12
 9.8316    9
 9.8366    7
 9.8416    7
 9.8466   11
 9.8516   12
 9.8566   16
 9.8616   10
 9.8666   10
 9.8716   11
 9.8766   10
 9.8816   12
 9.8866    9
 9.8916    9
 9.8966   12
 9.9016    7
 9.9066   12
 9.9116   11
 9.9166    7
 9.9216   11
 9.9266   12
 9.9316    5
 9.9366   12
 9.9416    9
 9.9466   19
 9.9516   12
 9.9566   11
 9.9616   12
 9.9666   10
 9.9716    5
 9.9766    9
 9.9816   17
 9.9866   11
 9.9916    6
 9.9966   11
10.0016   11
10.0066    7
10.0116   13
10.0166    8
10.0216    8
10.0266    6
10.0316   10
10.0366   10
10.0416    8
10.0466   12
10.0516   11
10.0566   11
10.0616   12
10.0666   12
10.0716   11
10.0766    6
10.0816   15
10.0866   10
10.0916    3
10.0966   12
10.1016   10
10.1066    6
10.1116    7
10.1166    6
10.1216   10
10.1266    7
10.1316   12
10.1366    7
10.1416    8
10.1466    9
10.1516   15
10.1566    9
10.1616   10
10.1666    8
10.1716   11
10.1766    7
10.1816    5
10.1866   10
10.1916    4
10.1966    9
10.2016    6
10.2066   11
10.2116    8
10.2166    8
10.2216    9
10.2266    8
10.2316   12
10.2366   13
10.2416   10
10.2466    7
10.2516   12
10.2566    7
10.2616    4
10.2666   11
10.2716   14
10.2766    9
10.2816   13
10.2866   10
10.2916   10
10.2966    9
10.3016   10
10.3066    6
10.3116    9
10.3166    6
10.3216    6
10.3266    6
10.3316    5
10.3366    9
10.3416   10
10.3466    6
10.3516    9
10.3566    8
10.3616    8
10.3666   12
10.3716   10
10.3766    9
10.3816   13
10.3866    7
10.3916    6
10.3966   11
10.4016    4
10.4066    6
10.4116    6
10.4166    3
10.4216    5
10.4266    7
10.4316    6
10.4366    5
10.4416    4
10.4466    5
10.4516   11
10.4566    6
10.4616    3
10.4666   10
10.4716    9
10.4766    9
10.4816    5
10.4866    4
10.4916    9
10.4966    9
10.5015    7
10.5065   11
10.5115    6
10.5165    3
10.5215    6
10.5265    6
10.5315   10
10.5365    9
10.5415   11
10.5465    5
10.5515    1
10.5565    7
10.5615    6
10.5665    9
10.5715    7
10.5765    2
10.5815   12
10.5865   10
10.5915    8
10.5965    7
10.6015    7
10.6065    8
10.6115    7
10.6165   10
10.6215   11
10.6265   10
10.6315   13
10.6365    7
10.6415    7
10.6465    7
10.6515    7
10.6565    9
10.6615    7
10.6665    2
10.6715    7
10.6765    5
10.6815    9
10.6865    9
10.6915   11
10.6965    4
10.7015    2
10.7065    7
10.7115    3
10.7165   11
10.7215    6
10.7265    8
10.7315    7
10.7365    4
10.7415    6
10.7465    5
10.7515    7
10.7565    5
10.7615    8
10.7665    6
10.7715   10
10.7765    6
10.7815    6
10.7865    5
10.7915    4
10.7965    5
10.8015    7
10.8065    4
10.8115    8
10.8165    6
10.8215   11
10.8265    3
10.8315    7
10.8365    4
10.8415    4
10.8465    9
10.8515   11
10.8565    9
10.8615   11
10.8665    7
10.8715   10
10.8765    8
10.8815    7
10.8865    3
10.8915    6
10.8965    8
10.9015    5
10.9065    4
10.9115    7
10.9165    3
10.9215    7
10.9265    8
10.9315    8
10.9365    4
10.9415   10
10.9465    7
10.9515    9
10.9565    7
10.9615   12
10.9665    2
10.9715    6
10.9765    9
10.9815    7
10.9865    7
10.9915    7
10.9965    4
11.0015    3
11.0065    8
11.0115    2
11.0165    7
11.0215    2
11.0265    5
11.0315    8
11.0365    5
11.0415    6
11.0465    6
11.0515    7
11.0565    1
11.0615    6
11.0665    6
11.0715   10
11.0765    5
11.0815    2
11.0865    8
11.0915    4
11.0965    7
11.1015    4
11.1065    7
11.1115    8
11.1165    7
11.1215    6
11.1265    5
11.1315    9
11.1365    5
11.1415    8
11.1465    3
11.1515    6
11.1565    5
11.1615    8
11.1665    4
11.1715    6
11.1765   10
11.1815    9
11.1865    7
11.1915    9
11.1965    3
11.2015    5
11.2065    7
11.2115    7
11.2165    2
11.2215    6
11.2265    7
11.2315    2
11.2365    6
11.2415    6
11.2465    7
11.2515    4
11.2565    6
11.2615    9
11.2665    5
11.2715    5
11.2765    8
11.2815    6
11.2865    6
11.2915    5
11.2965    9
11.3015    9
11.3065    4
11.3115    8
11.3165    5
11.3215    1
11.3265    6
11.3315    6
11.3365    6
11.3415    3
11.3465    7
11.3515    5
11.3565    6
11.3615    3
11.3665    4
11.3715    6
11.3765    2
11.3815    5
11.3865    9
11.3915    5
11.3965    6
11.4015    8
11.4065    5
11.4115    5
11.4165    2
11.4215    6
11.4265    3
11.4315    3
11.4365    4
11.4415    5
11.4465    4
11.4515    3
11.4565    5
11.4615    1
11.4665    5
11.4715    8
11.4765    2
11.4815    4
11.4865    7
11.4915    8
11.4965    5
11.5014   10
11.5064    4
11.5114    2
11.5164    6
11.5214    8
11.5264    2
11.5314    9
11.5364    5
11.5414    3
11.5464    6
11.5514    4
11.5564    1
11.5614    8
11.5664    2
11.5714    7
11.5764    4
11.5814    3
11.5864    4
11.5914    5
11.5964    3
11.6014    3
11.6064    5
11.6114    9
11.6164    7
11.6214    4
11.6264    3
11.6314    5
11.6364    2
11.6414    3
11.6464    4
11.6514   10
11.6564    6
11.6614    4
11.6664    6
11.6714    6
11.6764    7
11.6814    1
11.6864    4
11.6914    5
11.6964   10
11.7014    4
11.7064    2
11.7114    7
11.7164    3
11.7214    4
11.7264    3
11.7314    7
11.7364    8
11.7414    4
11.7464    5
11.7514    3
11.7564    5
11.7614    3
11.7664    9
11.7714    2
11.7764    2
11.7814    2
11.7864    4
11.7914    4
11.7964    5
11.8014    3
11.8064    3
11.8114    2
11.8164    4
11.8214    3
11.8264    6
11.8314    4
11.8364    3
11.8414    2
11.8464    8
11.8514    4
11.8564    2
11.8614    6
11.8664    5
11.8714    6
11.8764    5
11.8814    3
11.8864    5
11.8914    2
11.8964    8
11.9014    6
11.9064    6
11.9114    4
11.9164    2
11.9214    1
11.9264    2
11.9314    6
11.9364    2
11.9414    4
11.9464    2
11.9514    3
11.9564    7
11.9614    1
11.9664    6
11.9714    4
11.9764    2
11.9814    2
11.9864    1
11.9914    6
11.9964    5
12.0014    4
12.0064    1
12.0114    3
12.0164    1
12.0214    2
12.0264    4
12.0314    4
12.0364    1
12.0414    7
12.0464    4
12.0514    3
12.0564    4
12.0614    6
12.0664    2
12.0714    9
12.0764    4
12.0814    4
12.0864    3
12.0914    3
12.0964    5
12.1014    4
12.1064    4
12.1114    0
12.1164    5
12.1214    2
12.1264    3
12.1314    6
12.1364    2
12.1414    3
12.1464    8
12.1514    2
12.1564    4
12.1614    2
12.1664    2
12.1714    3
12.1764    1
12.1814    6
12.1864    8
12.1914    4
12.1964    2
12.2014    3
12.2064    4
12.2114    2
12.2164    1
12.2214    1
12.2264    5
12.2314    3
12.2364    4
12.2414    5
12.2464    4
12.2514    4
12.2564    6
12.2614    4
12.2664    2
12.2714    5
12.2764    2
12.2814    4
12.2864    3
12.2914    4
12.2964    3
12.3014    4
12.3064    1
12.3114    6
12.3164    3
12.3214    9
12.3264    6
12.3314    4
12.3364    2
12.3414    2
12.3464    6
12.3514    3
12.3564    4
12.3614    7
12.3664    3
12.3714    3
12.3764    0
12.3814    6
12.3864    5
12.3914    4
12.3964   10
12.4014    4
12.4064    2
12.4114    3
12.4164    3
12.4214    5
12.4264    2
12.4314    3
12.4364    4
12.4414    0
12.4464    2
12.4514    4
12.4564    5
12.4614    5
12.4664    1
12.4714    2
12.4764    3
12.4814    1
12.4864    4
12.4914    2
12.4964    2
12.5013    1
12.5063    1
12.5113    6
12.5163    4
12.5213    4
12.5263    5
12.5313    3
12.5363    2
12.5413    4
12.5463    4
12.5513    1
12.5563    2
12.5613    2
12.5663    4
12.5713    6
12.5763    4
12.5813    6
12.5863    2
12.5913    2
12.5963    2
12.6013    3
12.6063    1
12.6113    2
12.6163    4
12.6213    4
12.6263    3
12.6313    5
12.6363    2
12.6413    1
12.6463    4
12.6513    3
12.6563    3
12.6613    5
12.6663    4
12.6713    1
12.6763    2
12.6813    0
12.6863    3
12.6913    4
12.6963    1
12.7013    4
12.7063    4
12.7113    3
12.7163    5
12.7213    5
12.7263    2
12.7313    3
12.7363    0
12.7413    1
12.7463    2
12.7513    2
12.7563    1
12.7613    3
12.7663    4
12.7713    2
12.7763    4
12.7813    3
12.7863    0
12.7913    3
12.7963    2
12.8013    4
12.8063    4
12.8113    4
12.8163    0
12.8213    2
12.8263    0
12.8313    5
12.8363    2
12.8413    1
12.8463    2
12.8513    3
12.8563    2
12.8613    6
12.8663    1
12.8713    0
12.8763    7
12.8813    1
12.8863    4
12.8913    3
12.8963    4
12.9013    2
12.9063    0
12.9113    2
12.9163    0
12.9213    2
12.9263    4
12.9313    1
12.9363    5
12.9413    1
12.9463    5
12.9513    2
12.9563    1
12.9613    4
12.9663    2
12.9713    3
12.9763    2
12.9813    4
12.9863    2
12.9913    1
12.9963    3
13.0013    1
13.0063    1
13.0113    2
13.0163    1
13.0213    1
13.0263    2
13.0313    4
13.0363    2
13.0413    1
13.0463    2
13.0513    3
13.0563    3
13.0613    0
13.0663    1
13.0713    2
13.0763    3
13.0813    3
13.0863    3
13.0913    2
13.0963    1
13.1013    1
13.1063    4
13.1113    1
13.1163    0
13.1213    0
13.1263    0
13.1313    2
13.1363    1
13.1413    3
13.1463    2
13.1513    1
13.1563    0
13.1613    1
13.1663    2
13.1713    0
13.1763    3
13.1813    2
13.1863    3
13.1913    2
13.1963    4
13.2013    2
13.2063    2
13.2113    3
13.2163    2
13.2213    2
13.2263    1
13.2313    5
13.2363    3
13.2413    1
13.2463    3
13.2513    4
13.2563    1
13.2613    3
13.2663    1
13.2713    4
13.2763    2
13.2813    2
13.2863    1
13.2913    4
13.2963    1
13.3013    2
13.3063    2
13.3113    1
13.3163    1
13.3213    1
13.3263    2
13.3313    2
13.3363    3
13.3413    1
13.3463    0
13.3513    2
13.3563    3
13.3613    0
13.3663    1
13.3713    1
13.3763    1
13.3813    1
13.3863    0
13.3913    4
13.3963    2
13.4013    3
13.4063    1
13.4113    2
13.4163    2
13.4213    4
13.4263    0
13.4313    4
13.4363    1
13.4413    2
13.4463    0
13.4513    2
13.4563    0
13.4613    3
13.4663    2
13.4713    0
13.4763    3
13.4813    2
13.4863    2
13.4913    1
13.4963    0
13.5012    3
13.5062    2
13.5112    3
13.5162    3
13.5212    1
13.5262    1
13.5312    1
13.5362    1
13.5412    0
13.5462    0
13.5512    2
13.5562    0
13.5612    3
13.5662    2
13.5712    1
13.5762    1
13.5812    1
13.5862    1
13.5912    1
13.5962    1
13.6012    2
13.6062    1
13.6112    0
13.6162    1
13.6212    2
13.6262    1
13.6312    1
13.6362    2
13.6412    1
13.6462    0
13.6512    2
13.6562    2
13.6612    0
13.6662    0
13.6712    2
13.6762    3
13.6812    2
13.6862    3
13.6912    1
13.6962    2
13.7012    0
13.7062    0
13.7112    1
13.7162    3
13.7212    0
13.7262    4
13.7312    1
13.7362    2
13.7412    0
13.7462    3
13.7512    0
13.7562    3
13.7612    2
13.7662    5
13.7712    0
13.7762    0
13.7812    3
13.7862    0
13.7912    0
13.7962    0
13.8012    3
13.8062    0
13.8112    1
13.8162    2
13.8212    2
13.8262    4
13.8312    0
13.8362    1
13.8412    1
13.8462    1
13.8512    3
13.8562    1
13.8612    2
13.8662    1
13.8712    2
13.8762    5
13.8812    0
13.8862    0
13.8912    1
13.8962    3
13.9012    0
13.9062    1
13.9112    1
13.9162    2
13.9212    0
13.9262    1
13.9312    0
13.9362    0
13.9412    4
13.9462    2
13.9512    0
13.9562    1
13.9612    0
13.9662    0
13.9712    1
13.9762    0
13.9812    1
13.9862    1
13.9912    1
13.9962    0
14.0012    0
14.0062    0
14.0112    1
14.0162    0
14.0212    4
14.0262    0
14.0312    1
14.0362    0
14.0412    1
14.0462    1
14.0512    1
14.0562    2
14.0612    0
14.0662    1
14.0712    1
14.0762    1
14.0812    3
14.0862    1
14.0912    0
14.0962    0
14.1012    0
14.1062    0
14.1112    0
14.1162    2
14.1212    2
14.1262    1
14.1312    1
14.1362    0
14.1412    1
14.1462    0
14.1512    1
14.1562    2
14.1612    0
14.1662    0
14.1712    0
14.1762    3
14.1812    3
14.1862    1
14.1912    0
14.1962    0
14.2012    0
14.2062    1
14.2112    1
14.2162    0
14.2212    1
14.2262    1
14.2312    1
14.2362    0
14.2412    3
14.2462    0
14.2512    0
14.2562    0
14.2612    2
14.2662    0
14.2712    1
14.2762    0
14.2812    1
14.2862    1
14.2912    2
14.2962    2
14.3012    0
14.3062    1
14.3112    0
14.3162    2
14.3212    2
14.3262    1
14.3312    0
14.3362    0
14.3412    2
14.3462    1
14.3512    0
14.3562    0
14.3612    0
14.3662    0
14.3712    0
14.3762    0
14.3812    0
14.3862    1
14.3912    0
14.3962    0
14.4012    1
14.4062    1
14.4112    0
14.4162    1
14.4212    0
14.4262    1
14.4312    1
14.4362    0
14.4412    0
14.4462    0
14.4512    0
14.4562    1
14.4612    0
14.4662    0
14.4712    1
14.4762    0
14.4812    0
14.4862    0
14.4912    1
14.4962    0
14.5011    1
14.5061    1
14.5111    0
14.5161    0
14.5211    0
14.5261    0
14.5311    0
14.5361    0
14.5411    0
14.5461    0
14.5511    0
14.5561    1
14.5611    0
14.5661    0
14.5711    0
14.5761    0
14.5811    0
14.5861    1
14.5911    0
14.5961    0
14.6011    1
14.6061    0
14.6111    0
14.6161    1
14.6211    1
14.6261    0
14.6311    0
14.6361    0
14.6411    0
14.6461    1
14.6511    0
14.6561    2
14.6611    0
14.6661    0
14.6711    0
14.6761    1
14.6811    1
14.6861    0
14.6911    0
14.6961    0
14.7011    0
14.7061    1
14.7111    1
14.7161    0
14.7211    0
14.7261    0
14.7311    0
14.7361    0
14.7411    0
14.7461    0
14.7511    1
14.7561    0
14.7611    0
14.7661    0
14.7711    0
14.7761    1
14.7811    0
14.7861    0
14.7911    0
14.7961    0
14.8011    0
14.8061    1
14.8111    0
14.8161    0
14.8211    0
14.8261    0
14.8311    1
14.8361    0
14.8411    0
14.8461    0
14.8511    0
14.8561    0
14.8611    0
14.8661    0
14.8711    0
14.8761    0
14.8811    0
14.8861    1
14.8911    0
14.8961    0
14.9011    0
14.9061    0
14.9111    0
14.9161    0
14.9211    0
14.9261    0
14.9311    0
14.9361    0
14.9411    0
14.9461    0
14.9511    0
14.9561    0
14.9611    0
14.9661    0
14.9711    0
14.9761    0
14.9811    0
14.9861    0
14.9911    0
14.9961    0
15.0011    0
15.0061    0
15.0111    0
15.0161    0
15.0211    0
15.0261    0
15.0311    0
15.0361    0
15.0411    0
15.0461    0
15.0511    0
15.0561    0
15.0611    0
15.0661    0
15.0711    0
15.0761    0
15.0811    0
15.0861    0
15.0911    0
15.0961    0
15.1011    0
15.1061    0
15.1111    0
15.1161    0
15.1211    0
15.1261    0
15.1311    0
15.1361    0
15.1411    0
15.1461    0
15.1511    0
15.1561    0
15.1611    0
15.1661    0
15.1711    0
15.1761    0
15.1811    0
15.1861    0
15.1911    0
15.1961    0
15.2011    0
15.2061    0
15.2111    0
15.2161    0
15.2211    0
15.2261    0
15.2311    0
15.2361    0
15.2411    0
15.2461    0
15.2511    0
15.2561    0
15.2611    0
15.2661    0
15.2711    0
15.2761    0
15.2811    0
15.2861    0
15.2911    0
15.2961    0
15.3011    0
15.3061    0
15.3111    0
15.3161    0
15.3211    0
15.3261    0
15.3311    0
15.3361    0
15.3411    0
15.3461    0
15.3511    0
15.3561    0
15.3611    0
15.3661    0
15.3711    0
15.3761    0
15.3811    0
15.3861    0
15.3911    0
15.3961    0
15.4011    0
15.4061    0
15.4111    0
15.4161    0
15.4211    0
15.4261    0
15.4311    0
15.4361    0
15.4411    0
15.4461    0
15.4511    0
15.4561    0
15.4611    0
15.4661    0
15.4711    0
15.4761    0
15.4811    0
15.4861    0
15.4911    0
15.4961    0
 15.501    0
 15.506    0
 15.511    0
 15.516    0
 15.521    0
 15.526    0
 15.531    0
 15.536    0
 15.541    0
 15.546    0
 15.551    0
 15.556    0
 15.561    0
 15.566    0
 15.571    0
 15.576    0
 15.581    0
 15.586    0
 15.591    0
 15.596    0
 15.601    0
 15.606    0
 15.611    0
 15.616    0
 15.621    0
 15.626    0
 15.631    0
 15.636    0
 15.641    0
 15.646    0
 15.651    0
 15.656    0
 15.661    0
 15.666    0
 15.671    0
 15.676    0
 15.681    0
 15.686    0
 15.691    0
 15.696    0
 15.701    0
 15.706    0
 15.711    0
 15.716    0
 15.721    0
 15.726    0
 15.731    0
 15.736    0
 15.741    0
 15.746    0
 15.751    0
 15.756    0
 15.761    0
 15.766    0
 15.771    0
 15.776    0
 15.781    0
 15.786    0
 15.791    0
 15.796    0
 15.801    0
 15.806    0
 15.811    0
 15.816    0
 15.821    0
 15.826    0
 15.831    0
 15.836    0
 15.841    0
 15.846    0
 15.851    0
 15.856    0
 15.861    0
 15.866    0
 15.871    0
 15.876    0
 15.881    0
 15.886    0
 15.891    1
 15.896    0
 15.901    0
 15.906    0
 15.911    0
 15.916    0
 15.921    0
 15.926    0
 15.931    0
 15.936    0
 15.941    0
 15.946    0
 15.951    0
 15.956    0
 15.961    0
 15.966    0
 15.971    0
 15.976    0
 15.981    0
 15.986    0
 15.991    0
 15.996    0
 16.001    0
 16.006    0
 16.011    0
 16.016    0
 16.021    0
 16.026    0
 16.031    0
 16.036    0
 16.041    0
 16.046    0
 16.051    0
 16.056    0
 16.061    0
 16.066    0
 16.071    0
 16.076    0
 16.081    0
 16.086    0
 16.091    0
 16.096    0
 16.101    0
 16.106    0
 16.111    0
 16.116    0
 16.121    0
 16.126    0
 16.131    0
 16.136    0
 16.141    0
 16.146    0
 16.151    0
 16.156    0
 16.161    0
 16.166    0
 16.171    0
 16.176    0
 16.181    0
 16.186    0
 16.191    0
 16.196    0
 16.201    0
 16.206    0
 16.211    0
 16.216    0
 16.221    0
 16.226    0
 16.231    0
 16.236    0
 16.241    0
 16.246    0
 16.251    0
 16.256    0
 16.261    0
 16.266    0
 16.271    0
 16.276    0
 16.281    0
 16.286    0
 16.291    0
 16.296    0
 16.301    0
 16.306    0
 16.311    0
 16.316    0
 16.321    0
 16.326    0
 16.331    0
 16.336    0
 16.341    0
 16.346    0
 16.351    0
 16.356    0
 16.361    0
 16.366    0
 16.371    0
 16.376    0
 16.381    0
 16.386    0
 16.391    0
 16.396    0
 16.401    0
 16.406    0
 16.411    0
 16.416    0
 16.421    0
 16.426    0
 16.431    0
 16.436    0
 16.441    0
 16.446    0
 16.451    0
 16.456    0
 16.461    0
 16.466    0
 16.471    0
 16.476    0
 16.481    0
 16.486    0
 16.491    0
 16.496    0
16.5009    0
16.5059    0
16.5109    0
16.5159    0
16.5209    0
16.5259    0
16.5309    0
16.5359    0
16.5409    0
16.5459    0
16.5509    0
16.5559    0
16.5609    0
16.5659    0
16.5709    0
16.5759    0
16.5809    0
16.5859    0
16.5909    0
16.5959    0
16.6009    0
16.6059    0
16.6109    0
16.6159    0
16.6209    0
16.6259    0
16.6309    0
16.6359    0
16.6409    0
16.6459    0
16.6509    0
16.6559    0
16.6609    0
16.6659    0
16.6709    0
16.6759    0
16.6809    0
16.6859    0
16.6909    0
16.6959    0
16.7009    0
16.7059    0
16.7109    0
16.7159    0
16.7209    0
16.7259    0
16.7309    0
16.7359    0
16.7409    0
16.7459    0
16.7509    0
16.7559    0
16.7609    0
16.7659    0
16.7709    0
16.7759    0
16.7809    0
16.7859    0
16.7909    0
16.7959    0
16.8009    0
16.8059    0
16.8109    0
16.8159    0
16.8209    0
16.8259    0
16.8309    0
16.8359    0
16.8409    0
16.8459    0
16.8509    0
16.8559    0
16.8609    0
16.8659    0
16.8709    0
16.8759    0
16.8809    0
16.8859    0
16.8909    0
16.8959    0
16.9009    0
16.9059    0
16.9109    0
16.9159    0
16.9209    0
16.9259    0
16.9309    0
16.9359    0
16.9409    0
16.9459    0
16.9509    0
16.9559    0
16.9609    0
16.9659    0
16.9709    0
16.9759    0
16.9809    0
16.9859    0
16.9909    0
16.9959    0
17.0009    0
17.0059    0
17.0109    0
17.0159    0
17.0209    0
17.0259    0
17.0309    0
17.0359    0
17.0409    0
17.0459    0
17.0509    0
17.0559    0
17.0609    0
17.0659    0
17.0709    0
17.0759    0
17.0809    0
17.0859    0
17.0909    0
17.0959    0
17.1009    0
17.1059    0
17.1109    0
17.1159    0
17.1209    0
17.1259    0
17.1309    0
17.1359    0
17.1409    0
17.1459    0
17.1509    0
17.1559    0
17.1609    0
17.1659    0
17.1709    0
17.1759    0
17.1809    0
17.1859    0
17.1909    0
17.1959    0
17.2009    0
17.2059    0
17.2109    0
17.2159    0
17.2209    0
17.2259    0
17.2309    0
17.2359    0
17.2409    0
17.2459    0
17.2509    0
17.2559    0
17.2609    0
17.2659    0
17.2709    0
17.2759    0
17.2809    0
17.2859    0
17.2909    0
17.2959    0
17.3009    0
17.3059    0
17.3109    0
17.3159    0
17.3209    0
17.3259    0
17.3309    0
17.3359    0
17.3409    0
17.3459    0
17.3509    0
17.3559    0
17.3609    0
17.3659    0
17.3709    0
17.3759    0
17.3809    0
17.3859    0
17.3909    0
17.3959    0
17.4009    0
17.4059    0
17.4109    0
17.4159    0
17.4209    0
17.4259    0
17.4309    0
17.4359    0
17.4409    0
17.4459    0
17.4509    0
17.4559    0
17.4609    0
17.4659    0
17.4709    0
17.4759    0
17.4809    0
17.4859    0
17.4909    0
17.4959    0
17.5008    0
17.5058    0
17.5108    0
17.5158    0
17.5208    0
17.5258    0
17.5308    0
17.5358    0
17.5408    0
17.5458    0
17.5508    0
17.5558    0
17.5608    0
17.5658    0
17.5708    0
17.5758    0
17.5808    0
17.5858    0
17.5908    0
17.5958    0
17.6008    0
17.6058    0
17.6108    0
17.6158    0
17.6208    0
17.6258    0
17.6308    0
17.6358    0
17.6408    0
17.6458    0
17.6508    0
17.6558    0
17.6608    0
17.6658    0
17.6708    0
17.6758    0
17.6808    0
17.6858    0
17.6908    0
17.6958    0
17.7008    0
17.7058    0
17.7108    0
17.7158    0
17.7208    0
17.7258    0
17.7308    0
17.7358    0
17.7408    0
17.7458    0
17.7508    0
17.7558    0
17.7608    0
17.7658    0
17.7708    0
17.7758    0
17.7808    0
17.7858    0
17.7908    0
17.7958    0
17.8008    1
17.8058    0
17.8108    0
17.8158    0
17.8208    0
17.8258    0
17.8308    0
17.8358    0
17.8408    0
17.8458    0
17.8508    0
17.8558    0
17.8608    0
17.8658    0
17.8708    0
17.8758    0
17.8808    0
17.8858    0
17.8908    0
17.8958    0
17.9008    0
17.9058    0
17.9108    0
17.9158    0
17.9208    0
17.9258    0
17.9308    0
17.9358    0
17.9408    0
17.9458    0
17.9508    0
17.9558    0
17.9608    0
17.9658    0
17.9708    0
17.9758    0
17.9808    0
17.9858    0
17.9908    0
17.9958    0
18.0008    0
18.0058    0
18.0108    0
18.0158    0
18.0208    0
18.0258    0
18.0308    0
18.0358    0
18.0408    0
18.0458    0
18.0508    0
18.0558    0
18.0608    0
18.0658    0
18.0708    0
18.0758    0
18.0808    0
18.0858    0
18.0908    0
18.0958    0
18.1008    0
18.1058    0
18.1108    0
18.1158    0
18.1208    0
18.1258    0
18.1308    0
18.1358    0
18.1408    0
18.1458    0
18.1508    0
18.1558    0
18.1608    0
18.1658    0
18.1708    0
18.1758    0
18.1808    0
18.1858    0
18.1908    0
18.1958    0
18.2008    0
18.2058    0
18.2108    0
18.2158    0
18.2208    0
18.2258    0
18.2308    0
18.2358    0
18.2408    0
18.2458    0
18.2508    0
18.2558    0
18.2608    0
18.2658    0
18.2708    0
18.2758    0
18.2808    0
18.2858    0
18.2908    0
18.2958    0
18.3008    0
18.3058    0
18.3108    0
18.3158    0
18.3208    0
18.3258    0
18.3308    0
18.3358    0
18.3408    0
18.3458    0
18.3508    0
18.3558    0
18.3608    0
18.3658    0
18.3708    0
18.3758    0
18.3808    0
18.3858    0
18.3908    0
18.3958    0
18.4008    0
18.4058    0
18.4108    0
18.4158    0
18.4208    0
18.4258    0
18.4308    0
18.4358    0
18.4408    0
18.4458    0
18.4508    0
18.4558    0
18.4608    0
18.4658    0
18.4708    0
18.4758    0
18.4808    0
18.4858    0
18.4908    0
18.4958    0
18.5007    0
18.5057    0
18.5107    0
18.5157    0
18.5207    0
18.5257    0
18.5307    0
18.5357    0
18.5407    0
18.5457    0
18.5507    0
18.5557    0
18.5607    0
18.5657    0
18.5707    0
18.5757    0
18.5807    0
18.5857    0
18.5907    0
18.5957    0
18.6007    0
18.6057    0
18.6107    0
18.6157    0
18.6207    0
18.6257    0
18.6307    0
18.6357    0
18.6407    0
18.6457    0
18.6507    0
18.6557    0
18.6607    0
18.6657    0
18.6707    0
18.6757    0
18.6807    0
18.6857    0
18.6907    0
18.6957    0
18.7007    0
18.7057    0
18.7107    0
18.7157    0
18.7207    0
18.7257    0
18.7307    0
18.7357    0
18.7407    0
18.7457    0
18.7507    0
18.7557    0
18.7607    0
18.7657    0
18.7707    0
18.7757    0
18.7807    0
18.7857    0
18.7907    0
18.7957    0
18.8007    0
18.8057    0
18.8107    0
18.8157    0
18.8207    0
18.8257    0
18.8307    0
18.8357    0
18.8407    0
18.8457    0
18.8507    0
18.8557    0
18.8607    0
18.8657    0
18.8707    0
18.8757    0
18.8807    0
18.8857    0
18.8907    0
18.8957    0
18.9007    0
18.9057    0
18.9107    0
18.9157    0
18.9207    0
18.9257    0
18.9307    0
18.9357    0
18.9407    0
18.9457    0
18.9507    0
18.9557    0
18.9607    0
18.9657    0
18.9707    0
18.9757    0
18.9807    0
18.9857    0
18.9907    0
18.9957    0
19.0007    0
19.0057    0
19.0107    0
19.0157    0
19.0207    0
19.0257    0
19.0307    0
19.0357    0
19.0407    0
19.0457    0
19.0507    0
19.0557    0
19.0607    0
19.0657    0
19.0707    0
19.0757    0
19.0807    0
19.0857    0
19.0907    0
19.0957    0
19.1007    0
19.1057    0
19.1107    0
19.1157    0
19.1207    0
19.1257    0
19.1307    0
19.1357    0
19.1407    0
19.1457    0
19.1507    0
19.1557    0
19.1607    0
19.1657    0
19.1707    0
19.1757    0
19.1807    0
19.1857    0
19.1907    0
19.1957    0
19.2007    0
19.2057    0
19.2107    0
19.2157    0
19.2207    0
19.2257    0
19.2307    0
19.2357    0
19.2407    0
19.2457    0
19.2507    0
19.2557    0
19.2607    0
19.2657    0
19.2707    0
19.2757    0
19.2807    0
19.2857    0
19.2907    0
19.2957    0
19.3007    0
19.3057    0
19.3107    0
19.3157    0
19.3207    0
19.3257    0
19.3307    0
19.3357    0
19.3407    0
19.3457    0
19.3507    0
19.3557    0
19.3607    0
19.3657    0
19.3707    0
19.3757    0
19.3807    0
19.3857    0
19.3907    0
19.3957    0
19.4007    0
19.4057    0
19.4107    0
19.4157    0
19.4207    0
19.4257    0
19.4307    0
19.4357    0
19.4407    0
19.4457    0
19.4507    0
19.4557    0
19.4607    0
19.4657    0
19.4707    0
19.4757    0
19.4807    0
19.4857    0
19.4907    0
19.4957    0
19.5006    0
19.5056    0
19.5106    0
19.5156    0
19.5206    0
19.5256    0
19.5306    0
19.5356    0
19.5406    0
19.5456    0
19.5506    0
19.5556    0
19.5606    0
19.5656    0
19.5706    0
19.5756    0
19.5806    0
19.5856    0
19.5906    0
19.5956    0
19.6006    0
19.6056    0
19.6106    0
19.6156    0
19.6206    0
19.6256    0
19.6306    0
19.6356    0
19.6406    0
19.6456    0
19.6506    0
19.6556    0
19.6606    0
19.6656    0
19.6706    0
19.6756    0
19.6806    0
19.6856    0
19.6906    0
19.6956    0
19.7006    0
19.7056    0
19.7106    0
19.7156    0
19.7206    0
19.7256    0
19.7306    0
19.7356    0
19.7406    0
19.7456    0
19.7506    0
19.7556    0
19.7606    0
19.7656    0
19.7706    0
19.7756    0
19.7806    0
19.7856    0
19.7906    0
19.7956    0
19.8006    0
19.8056    0
19.8106    0
19.8156    0
19.8206    0
19.8256    0
19.8306    0
19.8356    0
19.8406    0
19.8456    0
19.8506    0
19.8556    0
19.8606    0
19.8656    0
19.8706    0
19.8756    0
19.8806    0
19.8856    0
19.8906    0
19.8956    0
19.9006    0
19.9056    0
19.9106    0
19.9156    0
19.9206    0
19.9256    0
19.9306    0
19.9356    0
19.9406    0
19.9456    0
19.9506    0
19.9556    0
19.9606    0
19.9656    0
19.9706    0
19.9756    0
19.9806    0
19.9856    0
19.9906    0